#  E (eV)   dos(E)     Int dos(E) EFermi =    0.000 eV
 -15.000  0.1405E-83  0.1405E-84
 -14.900  0.1405E-83  0.2811E-84
 -14.800  0.1405E-83  0.4216E-84
 -14.700  0.1405E-83  0.5622E-84
 -14.600  0.1405E-83  0.7027E-84
 -14.500  0.1405E-83  0.8432E-84
 -14.400  0.1405E-83  0.9838E-84
 -14.300  0.1405E-83  0.1124E-83
 -14.200  0.1405E-83  0.1265E-83
 -14.100  0.1405E-83  0.1405E-83
 -14.000  0.1405E-83  0.1546E-83
 -13.900  0.1405E-83  0.1686E-83
 -13.800  0.1405E-83  0.1827E-83
 -13.700  0.1405E-83  0.1968E-83
 -13.600  0.1405E-83  0.2108E-83
 -13.500  0.1405E-83  0.2249E-83
 -13.400  0.1405E-83  0.2389E-83
 -13.300  0.1405E-83  0.2530E-83
 -13.200  0.1405E-83  0.2670E-83
 -13.100  0.1405E-83  0.2811E-83
 -13.000  0.1405E-83  0.2951E-83
 -12.900  0.1405E-83  0.3092E-83
 -12.800  0.1405E-83  0.3232E-83
 -12.700  0.1405E-83  0.3373E-83
 -12.600  0.1405E-83  0.3514E-83
 -12.500  0.1405E-83  0.3654E-83
 -12.400  0.1405E-83  0.3795E-83
 -12.300  0.1405E-83  0.3935E-83
 -12.200  0.1405E-83  0.4076E-83
 -12.100  0.1405E-83  0.4216E-83
 -12.000  0.1405E-83  0.4357E-83
 -11.900  0.1405E-83  0.4497E-83
 -11.800  0.1405E-83  0.4638E-83
 -11.700  0.1405E-83  0.4778E-83
 -11.600  0.1405E-83  0.4919E-83
 -11.500  0.1405E-83  0.5059E-83
 -11.400  0.1405E-83  0.5200E-83
 -11.300  0.1405E-83  0.5341E-83
 -11.200  0.1405E-83  0.5481E-83
 -11.100  0.1405E-83  0.5622E-83
 -11.000  0.1405E-83  0.5762E-83
 -10.900  0.1405E-83  0.5903E-83
 -10.800  0.1405E-83  0.6043E-83
 -10.700  0.1405E-83  0.6184E-83
 -10.600  0.1405E-83  0.6324E-83
 -10.500  0.1405E-83  0.6465E-83
 -10.400  0.1405E-83  0.6605E-83
 -10.300  0.1405E-83  0.6746E-83
 -10.200  0.1405E-83  0.6886E-83
 -10.100  0.1653E-81  0.2342E-82
 -10.000  0.5626E-70  0.5626E-71
  -9.900  0.2623E-59  0.2623E-60
  -9.800  0.1664E-49  0.1664E-50
  -9.700  0.1437E-40  0.1437E-41
  -9.600  0.1693E-32  0.1693E-33
  -9.500  0.2728E-25  0.2728E-26
  -9.400  0.6025E-19  0.6025E-20
  -9.300  0.1830E-13  0.1830E-14
  -9.200  0.7678E-09  0.7679E-10
  -9.100  0.4470E-05  0.4471E-06
  -9.000  0.3628E-02  0.3633E-03
  -8.900  0.4125E+00  0.4161E-01
  -8.800  0.6605E+01  0.7021E+00
  -8.700  0.1598E+02  0.2300E+01
  -8.600  0.1742E+02  0.4043E+01
  -8.500  0.3588E+02  0.7630E+01
  -8.400  0.4613E+02  0.1224E+02
  -8.300  0.6406E+02  0.1865E+02
  -8.200  0.4589E+02  0.2324E+02
  -8.100  0.7391E+01  0.2398E+02
  -8.000  0.2142E+00  0.2400E+02
  -7.900  0.9975E-03  0.2400E+02
  -7.800  0.6971E-06  0.2400E+02
  -7.700  0.7032E-10  0.2400E+02
  -7.600  0.1002E-14  0.2400E+02
  -7.500  0.1992E-20  0.2400E+02
  -7.400  0.5477E-27  0.2400E+02
  -7.300  0.2072E-34  0.2400E+02
  -7.200  0.1074E-42  0.2400E+02
  -7.100  0.7608E-52  0.2400E+02
  -7.000  0.7349E-62  0.2400E+02
  -6.900  0.1399E-55  0.2400E+02
  -6.800  0.4273E-46  0.2400E+02
  -6.700  0.1774E-37  0.2400E+02
  -6.600  0.1003E-29  0.2400E+02
  -6.500  0.7742E-23  0.2400E+02
  -6.400  0.8188E-17  0.2400E+02
  -6.300  0.1194E-11  0.2400E+02
  -6.200  0.2426E-07  0.2400E+02
  -6.100  0.7010E-04  0.2400E+02
  -6.000  0.2991E-01  0.2400E+02
  -5.900  0.2002E+01  0.2420E+02
  -5.800  0.2236E+02  0.2644E+02
  -5.700  0.4220E+02  0.3066E+02
  -5.600  0.1282E+02  0.3194E+02
  -5.500  0.5867E+00  0.3200E+02
  -5.400  0.3866E-02  0.3200E+02
  -5.300  0.3578E-05  0.3200E+02
  -5.200  0.4594E-09  0.3200E+02
  -5.100  0.8130E-14  0.3200E+02
  -5.000  0.1976E-19  0.3200E+02
  -4.900  0.6261E-18  0.3200E+02
  -4.800  0.1273E-12  0.3200E+02
  -4.700  0.3557E-08  0.3200E+02
  -4.600  0.1381E-04  0.3200E+02
  -4.500  0.7596E-02  0.3200E+02
  -4.400  0.6172E+00  0.3206E+02
  -4.300  0.8693E+01  0.3293E+02
  -4.200  0.3950E+02  0.3688E+02
  -4.100  0.7722E+02  0.4460E+02
  -4.000  0.3187E+02  0.4779E+02
  -3.900  0.2078E+01  0.4800E+02
  -3.800  0.2025E-01  0.4800E+02
  -3.700  0.2875E-04  0.4800E+02
  -3.600  0.9289E-07  0.4800E+02
  -3.500  0.1808E-03  0.4800E+02
  -3.400  0.5267E-01  0.4801E+02
  -3.300  0.2166E+01  0.4822E+02
  -3.200  0.1267E+02  0.4949E+02
  -3.100  0.1161E+02  0.5065E+02
  -3.000  0.1223E+02  0.5187E+02
  -2.900  0.2193E+02  0.5407E+02
  -2.800  0.1608E+02  0.5567E+02
  -2.700  0.3161E+01  0.5599E+02
  -2.600  0.1001E+00  0.5600E+02
  -2.500  0.4550E-03  0.5600E+02
  -2.400  0.2905E-06  0.5600E+02
  -2.300  0.2585E-10  0.5600E+02
  -2.200  0.3190E-15  0.5600E+02
  -2.100  0.5434E-21  0.5600E+02
  -2.000  0.1273E-27  0.5600E+02
  -1.900  0.4089E-35  0.5600E+02
  -1.800  0.1796E-43  0.5600E+02
  -1.700  0.1077E-52  0.5600E+02
  -1.600  0.8795E-63  0.5600E+02
  -1.500  0.9771E-74  0.5600E+02
  -1.400  0.1435E-79  0.5600E+02
  -1.300  0.3445E-68  0.5600E+02
  -1.200  0.1124E-57  0.5600E+02
  -1.100  0.4988E-48  0.5600E+02
  -1.000  0.3012E-39  0.5600E+02
  -0.900  0.2478E-31  0.5600E+02
  -0.800  0.2779E-24  0.5600E+02
  -0.700  0.4260E-18  0.5600E+02
  -0.600  0.8952E-13  0.5600E+02
  -0.500  0.2591E-08  0.5600E+02
  -0.400  0.1042E-04  0.5600E+02
  -0.300  0.5900E-02  0.5600E+02
  -0.200  0.4833E+00  0.5605E+02
  -0.100  0.6149E+01  0.5666E+02
   0.000  0.1568E+02  0.5823E+02
   0.100  0.1663E+02  0.5990E+02
   0.200  0.1171E+02  0.6107E+02
   0.300  0.6973E+01  0.6176E+02
   0.400  0.2018E+02  0.6378E+02
   0.500  0.2905E+02  0.6669E+02
   0.600  0.2538E+02  0.6923E+02
   0.700  0.2782E+02  0.7201E+02
   0.800  0.2402E+02  0.7441E+02
   0.900  0.1754E+02  0.7616E+02
   1.000  0.2401E+02  0.7856E+02
   1.100  0.1701E+02  0.8027E+02
   1.200  0.2279E+02  0.8254E+02
   1.300  0.2267E+02  0.8481E+02
   1.400  0.1598E+02  0.8641E+02
   1.500  0.2801E+02  0.8921E+02
   1.600  0.3079E+02  0.9229E+02
   1.700  0.2705E+02  0.9499E+02
   1.800  0.2965E+02  0.9796E+02
   1.900  0.3148E+02  0.1011E+03
   2.000  0.4269E+02  0.1054E+03
   2.100  0.3859E+02  0.1092E+03
   2.200  0.3041E+02  0.1123E+03
   2.300  0.3345E+02  0.1156E+03
   2.400  0.2485E+02  0.1181E+03
   2.500  0.1487E+02  0.1196E+03
   2.600  0.5201E+01  0.1201E+03
   2.700  0.1249E+02  0.1214E+03
   2.800  0.1833E+02  0.1232E+03
   2.900  0.1108E+02  0.1243E+03
   3.000  0.1967E+02  0.1263E+03
   3.100  0.1356E+02  0.1276E+03
   3.200  0.3489E+01  0.1280E+03
   3.300  0.2464E+00  0.1280E+03
   3.400  0.2990E-02  0.1280E+03
   3.500  0.5248E-05  0.1280E+03
   3.600  0.1271E-08  0.1280E+03
   3.700  0.4194E-13  0.1280E+03
   3.800  0.1877E-18  0.1280E+03
   3.900  0.1137E-24  0.1280E+03
   4.000  0.9332E-32  0.1280E+03
   4.100  0.1036E-39  0.1280E+03
   4.200  0.1558E-48  0.1280E+03
   4.300  0.3168E-58  0.1280E+03
   4.400  0.2381E-62  0.1280E+03
   4.500  0.2636E-52  0.1280E+03
   4.600  0.3956E-43  0.1280E+03
   4.700  0.8056E-35  0.1280E+03
   4.800  0.2227E-27  0.1280E+03
   4.900  0.8362E-21  0.1280E+03
   5.000  0.4272E-15  0.1280E+03
   5.100  0.2976E-10  0.1280E+03
   5.200  0.2842E-06  0.1280E+03
   5.300  0.3769E-03  0.1280E+03
   5.400  0.7159E-01  0.1280E+03
   5.500  0.2093E+01  0.1282E+03
   5.600  0.1075E+02  0.1293E+03
   5.700  0.1121E+02  0.1304E+03
   5.800  0.2447E+01  0.1307E+03
   5.900  0.6433E+00  0.1307E+03
   6.000  0.5026E+01  0.1312E+03
   6.100  0.6538E+01  0.1319E+03
   6.200  0.1188E+01  0.1320E+03
   6.300  0.2993E-01  0.1320E+03
