#  E (eV)   dos(E)     Int dos(E) EFermi =    3.173 eV
 -15.000  0.1374E-83  0.1374E-84
 -14.900  0.1374E-83  0.2748E-84
 -14.800  0.1374E-83  0.4123E-84
 -14.700  0.1374E-83  0.5497E-84
 -14.600  0.1374E-83  0.6871E-84
 -14.500  0.1374E-83  0.8245E-84
 -14.400  0.1374E-83  0.9619E-84
 -14.300  0.1374E-83  0.1099E-83
 -14.200  0.1374E-83  0.1237E-83
 -14.100  0.1374E-83  0.1374E-83
 -14.000  0.1374E-83  0.1512E-83
 -13.900  0.1374E-83  0.1649E-83
 -13.800  0.1374E-83  0.1786E-83
 -13.700  0.1374E-83  0.1924E-83
 -13.600  0.1374E-83  0.2061E-83
 -13.500  0.1374E-83  0.2199E-83
 -13.400  0.1374E-83  0.2336E-83
 -13.300  0.1374E-83  0.2474E-83
 -13.200  0.1374E-83  0.2611E-83
 -13.100  0.1374E-83  0.2748E-83
 -13.000  0.1374E-83  0.2886E-83
 -12.900  0.1374E-83  0.3023E-83
 -12.800  0.1374E-83  0.3161E-83
 -12.700  0.1374E-83  0.3298E-83
 -12.600  0.1374E-83  0.3435E-83
 -12.500  0.1374E-83  0.3573E-83
 -12.400  0.1374E-83  0.3710E-83
 -12.300  0.1374E-83  0.3848E-83
 -12.200  0.1374E-83  0.3985E-83
 -12.100  0.1374E-83  0.4123E-83
 -12.000  0.1374E-83  0.4260E-83
 -11.900  0.1374E-83  0.4397E-83
 -11.800  0.1374E-83  0.4535E-83
 -11.700  0.1374E-83  0.4672E-83
 -11.600  0.1374E-83  0.4810E-83
 -11.500  0.1374E-83  0.4947E-83
 -11.400  0.1374E-83  0.5084E-83
 -11.300  0.1374E-83  0.5222E-83
 -11.200  0.1374E-83  0.5359E-83
 -11.100  0.1374E-83  0.5497E-83
 -11.000  0.1374E-83  0.5634E-83
 -10.900  0.1374E-83  0.5772E-83
 -10.800  0.1374E-83  0.5909E-83
 -10.700  0.1374E-83  0.6046E-83
 -10.600  0.1374E-83  0.6184E-83
 -10.500  0.1374E-83  0.6321E-83
 -10.400  0.1374E-83  0.6459E-83
 -10.300  0.1374E-83  0.6596E-83
 -10.200  0.1374E-83  0.6733E-83
 -10.100  0.8382E-77  0.8382E-78
 -10.000  0.1182E-65  0.1182E-66
  -9.900  0.2275E-55  0.2275E-56
  -9.800  0.5980E-46  0.5980E-47
  -9.700  0.2152E-37  0.2152E-38
  -9.600  0.1064E-29  0.1064E-30
  -9.500  0.7246E-23  0.7246E-24
  -9.400  0.6830E-17  0.6830E-18
  -9.300  0.8952E-12  0.8952E-13
  -9.200  0.1641E-07  0.1641E-08
  -9.100  0.4227E-04  0.4228E-05
  -9.000  0.1540E-01  0.1544E-02
  -8.900  0.8066E+00  0.8220E-01
  -8.800  0.6629E+01  0.7451E+00
  -8.700  0.1348E+02  0.2093E+01
  -8.600  0.2095E+02  0.4188E+01
  -8.500  0.3588E+02  0.7776E+01
  -8.400  0.4494E+02  0.1227E+02
  -8.300  0.6416E+02  0.1869E+02
  -8.200  0.4566E+02  0.2325E+02
  -8.100  0.7274E+01  0.2398E+02
  -8.000  0.2069E+00  0.2400E+02
  -7.900  0.9781E-03  0.2400E+02
  -7.800  0.7341E-06  0.2400E+02
  -7.700  0.8393E-10  0.2400E+02
  -7.600  0.1411E-14  0.2400E+02
  -7.500  0.3392E-20  0.2400E+02
  -7.400  0.1147E-26  0.2400E+02
  -7.300  0.5381E-34  0.2400E+02
  -7.200  0.3481E-42  0.2400E+02
  -7.100  0.3089E-51  0.2400E+02
  -7.000  0.3748E-61  0.2400E+02
  -6.900  0.3261E-56  0.2400E+02
  -6.800  0.1132E-46  0.2400E+02
  -6.700  0.5356E-38  0.2400E+02
  -6.600  0.3461E-30  0.2400E+02
  -6.500  0.3063E-23  0.2400E+02
  -6.400  0.3731E-17  0.2400E+02
  -6.300  0.6299E-12  0.2400E+02
  -6.200  0.1491E-07  0.2400E+02
  -6.100  0.5042E-04  0.2400E+02
  -6.000  0.2498E-01  0.2400E+02
  -5.900  0.1878E+01  0.2419E+02
  -5.800  0.2219E+02  0.2641E+02
  -5.700  0.4225E+02  0.3063E+02
  -5.600  0.1302E+02  0.3194E+02
  -5.500  0.6372E+00  0.3200E+02
  -5.400  0.4806E-02  0.3200E+02
  -5.300  0.5407E-05  0.3200E+02
  -5.200  0.8828E-09  0.3200E+02
  -5.100  0.2048E-13  0.3200E+02
  -5.000  0.6657E-19  0.3200E+02
  -4.900  0.1242E-18  0.3200E+02
  -4.800  0.3211E-13  0.3200E+02
  -4.700  0.1146E-08  0.3200E+02
  -4.600  0.5707E-05  0.3200E+02
  -4.500  0.4052E-02  0.3200E+02
  -4.400  0.4324E+00  0.3204E+02
  -4.300  0.8152E+01  0.3286E+02
  -4.200  0.4137E+02  0.3700E+02
  -4.100  0.7471E+02  0.4447E+02
  -4.000  0.3276E+02  0.4774E+02
  -3.900  0.2535E+01  0.4800E+02
  -3.800  0.3106E-01  0.4800E+02
  -3.700  0.5773E-04  0.4800E+02
  -3.600  0.4909E-07  0.4800E+02
  -3.500  0.7492E-04  0.4800E+02
  -3.400  0.2474E-01  0.4800E+02
  -3.300  0.1241E+01  0.4813E+02
  -3.200  0.1012E+02  0.4914E+02
  -3.100  0.1714E+02  0.5085E+02
  -3.000  0.1608E+02  0.5246E+02
  -2.900  0.1756E+02  0.5422E+02
  -2.800  0.1187E+02  0.5540E+02
  -2.700  0.5342E+01  0.5594E+02
  -2.600  0.6052E+00  0.5600E+02
  -2.500  0.1058E-01  0.5600E+02
  -2.400  0.2646E-04  0.5600E+02
  -2.300  0.9282E-08  0.5600E+02
  -2.200  0.4522E-12  0.5600E+02
  -2.100  0.3041E-17  0.5600E+02
  -2.000  0.2811E-23  0.5600E+02
  -1.900  0.3562E-30  0.5600E+02
  -1.800  0.6173E-38  0.5600E+02
  -1.700  0.1461E-46  0.5600E+02
  -1.600  0.4714E-56  0.5600E+02
  -1.500  0.2072E-66  0.5600E+02
  -1.400  0.1240E-77  0.5600E+02
  -1.300  0.3635E-70  0.5600E+02
  -1.200  0.1550E-59  0.5600E+02
  -1.100  0.9001E-50  0.5600E+02
  -1.000  0.7131E-41  0.5600E+02
  -0.900  0.7725E-33  0.5600E+02
  -0.800  0.1148E-25  0.5600E+02
  -0.700  0.2350E-19  0.5600E+02
  -0.600  0.6676E-14  0.5600E+02
  -0.500  0.2657E-09  0.5600E+02
  -0.400  0.1507E-05  0.5600E+02
  -0.300  0.1251E-02  0.5600E+02
  -0.200  0.1593E+00  0.5602E+02
  -0.100  0.3403E+01  0.5636E+02
   0.000  0.1492E+02  0.5785E+02
   0.100  0.2092E+02  0.5994E+02
   0.200  0.1515E+02  0.6145E+02
   0.300  0.1191E+02  0.6265E+02
   0.400  0.1520E+02  0.6417E+02
   0.500  0.2320E+02  0.6649E+02
   0.600  0.2651E+02  0.6914E+02
   0.700  0.2569E+02  0.7171E+02
   0.800  0.2820E+02  0.7453E+02
   0.900  0.2250E+02  0.7678E+02
   1.000  0.1282E+02  0.7806E+02
   1.100  0.1745E+02  0.7980E+02
   1.200  0.2433E+02  0.8224E+02
   1.300  0.1866E+02  0.8410E+02
   1.400  0.2038E+02  0.8614E+02
   1.500  0.2877E+02  0.8902E+02
   1.600  0.3053E+02  0.9207E+02
   1.700  0.2958E+02  0.9503E+02
   1.800  0.3142E+02  0.9817E+02
   1.900  0.3486E+02  0.1017E+03
   2.000  0.3979E+02  0.1056E+03
   2.100  0.3423E+02  0.1091E+03
   2.200  0.2962E+02  0.1120E+03
   2.300  0.3104E+02  0.1151E+03
   2.400  0.2751E+02  0.1179E+03
   2.500  0.1784E+02  0.1197E+03
   2.600  0.1058E+02  0.1207E+03
   2.700  0.1004E+02  0.1217E+03
   2.800  0.1174E+02  0.1229E+03
   2.900  0.1443E+02  0.1243E+03
   3.000  0.1786E+02  0.1261E+03
   3.100  0.1413E+02  0.1275E+03
   3.200  0.4230E+01  0.1280E+03
   3.300  0.3674E+00  0.1280E+03
   3.400  0.6860E-02  0.1280E+03
